# SrXplanar configuration #
[Experiment]
addmask = edgemask
integrationspace = twotheta
wavelength = 0.1078
xbeamcenter = 1299.43
ybeamcenter = 1010.19
distance = 369.579
rotationd = 49.715
tiltd = -1.48
tthstepd = 0.02
qstep = 0.02

[Beamline]
fliphorizontal = False
flipvertical = True
xdimension = 2048
ydimension = 2048
xpixelsize = 0.2
ypixelsize = 0.2

[Others]
uncertaintyenable = True
sacorrectionenable = True
polcorrectionenable = True
polcorrectf = 0.95
maskedges = 20, 20, 20, 20, 100



###Data###

0 1528 55.987
0.02 1483 55.1565
0.04 1609.83 57.4667
0.06 1595.38 57.2081
0.08 1600.6 57.3017
0.1 1592.8 57.1619
0.12 1617.53 57.604
0.14 1619.47 57.6385
0.16 1662.25 58.3948
0.18 1716.38 59.3379
0.2 1732.79 59.6209
0.22 1870.63 61.947
0.24 2284.97 68.4645
0.26 2709.84 74.5586
0.28 4549.81 96.6102
0.3 6301.85 113.7
0.32 7070.64 120.436
0.34 8604.66 132.859
0.36 9093.76 136.583
0.38 9980.94 143.091
0.4 11066 150.668
0.42 11353.3 152.612
0.44 11262.5 152
0.46 11114.4 150.997
0.48 10850 149.19
0.5 10677 147.996
0.52 10722.8 148.314
0.54 10691 148.093
0.56 10731.1 148.37
0.58 10773.7 148.665
0.6 10754.4 148.532
0.62 10860.5 149.262
0.64 10813.7 148.94
0.66 10811 148.922
0.68 10900.1 149.534
0.7 10908.3 149.59
0.72 10934.6 149.771
0.74 11145.4 151.208
0.76 11377.2 152.772
0.78 12086.9 157.464
0.8 14561.5 172.834
0.82 20634.6 205.742
0.84 35894.4 271.356
0.86 60016.3 350.881
0.88 74327.8 390.482
0.9 76209.6 395.394
0.92 66749.3 370.041
0.94 46008.4 307.216
0.96 23753.4 220.744
0.98 15601.9 178.901
1 11349.4 152.585
1.02 9983.13 143.105
1.04 9457.4 139.288
1.06 9141.87 136.945
1.08 8907.54 135.178
1.1 8744.68 133.936
1.12 8601.16 132.832
1.14 8454.59 131.696
1.16 8326.59 130.696
1.18 8240.65 130.018
1.2 8116.78 129.039
1.22 8060.12 128.587
1.24 8006.59 128.161
1.26 7865.41 127.024
1.28 7811.48 126.588
1.3 7727.24 125.904
1.32 7624.9 125.067
1.34 7554.73 124.491
1.36 7465.08 123.749
1.38 7350.71 122.797
1.4 7281.57 122.219
1.42 7184.57 121.402
1.44 7082.84 120.538
1.46 7040.46 120.179
1.48 6935.22 119.278
1.5 6928.08 119.215
1.52 6886.52 118.857
1.54 6870.2 118.716
1.56 7031.39 120.1
1.58 7530.43 124.291
1.6 8815.53 134.477
1.62 11598.4 154.251
1.64 15419.8 177.855
1.66 17903.7 191.644
1.68 18762.4 196.187
1.7 16532.3 184.158
1.72 13130.1 164.119
1.74 10165.5 144.407
1.76 8438.04 131.567
1.78 7894.14 127.256
1.8 7658.95 125.346
1.82 7471.03 123.799
1.84 7316.2 122.509
1.86 7194.98 121.491
1.88 7196.63 121.503
1.9 7345.54 122.755
1.92 7564.25 124.57
1.94 7851 126.907
1.96 8404.58 131.304
1.98 9519.69 139.746
2 12241 158.465
2.02 20199.3 203.56
2.04 42850.2 296.485
2.06 66625.5 369.697
2.08 89813.6 429.237
2.1 98194.4 448.817
2.12 87208 422.965
2.14 64480.2 363.696
2.16 39261.4 283.797
2.18 19548 200.253
2.2 12479.2 160.001
2.22 11112.5 150.982
2.24 11819 155.71
2.26 12983.1 163.199
2.28 13285.8 165.089
2.3 12717 161.517
2.32 11217.3 151.696
2.34 9903.51 142.535
2.36 9842.62 142.095
2.38 12524.6 160.291
2.4 17811.1 191.149
2.42 24536.4 224.352
2.44 28823.8 243.165
2.46 28752.1 242.862
2.48 24184.5 222.739
2.5 17623.1 190.138
2.52 12067 157.335
2.54 9011.28 135.962
2.56 7834.31 126.771
2.58 7372.89 122.981
2.6 7135.31 120.982
2.62 6966.12 119.544
2.64 7047.48 120.24
2.66 7309.08 122.448
2.68 7831.89 126.752
2.7 8762.13 134.072
2.72 9869.1 142.287
2.74 10756.1 148.544
2.76 11022.1 150.369
2.78 10964.3 149.975
2.8 11249.5 151.913
2.82 14152.6 170.39
2.84 23027.2 217.343
2.86 36059.1 271.978
2.88 48067.4 314.015
2.9 52877.5 329.353
2.92 48239.5 314.576
2.94 35958.6 271.6
2.96 23715.4 220.566
2.98 14485.7 172.382
3 10841.1 149.131
3.02 9951.59 142.88
3.04 9944.28 142.825
3.06 9510.8 139.681
3.08 9286.97 138.023
3.1 9065.94 136.374
3.12 9537.7 139.88
3.14 12077.4 157.401
3.16 17718 190.647
3.18 27385 237.018
3.2 36627.3 274.113
3.22 42619.4 295.685
3.24 41152.7 290.554
3.26 34904.3 267.588
3.28 26079.4 231.298
3.3 20217.8 203.654
3.32 18237.6 193.424
3.34 17889.2 191.568
3.36 17136.3 187.494
3.38 15243.1 176.832
3.4 12881.1 162.554
3.42 11858.6 155.97
3.44 14313.8 171.357
3.46 22449.2 214.598
3.48 35883.6 271.316
3.5 49025.9 317.129
3.52 58335.1 345.933
3.54 57198.6 342.545
3.56 47304.5 311.514
3.58 35200.9 268.721
3.6 23893.8 221.395
3.62 17356.4 188.694
3.64 13708.7 167.696
3.66 11061.3 150.636
3.68 9218.35 137.513
3.7 8005.58 128.151
3.72 7405.75 123.258
3.74 7653.82 125.306
3.76 9401.26 138.87
3.78 13841.8 168.509
3.8 21955.1 212.223
3.82 29224.4 244.848
3.84 34473.1 265.932
3.86 33664.5 262.792
3.88 28252.6 240.744
3.9 20577.1 205.457
3.92 13114.3 164.017
3.94 8705.33 133.639
3.96 6742.06 117.603
3.98 5885.09 109.877
4 5449.38 105.725
4.02 5201.78 103.296
4.04 5066.92 101.956
4.06 4964.33 100.917
4.08 4888.36 100.14
4.1 4872.92 99.9815
4.12 4890.83 100.165
4.14 5038.47 101.666
4.16 5302.74 104.299
4.18 5740.03 108.51
4.2 6302.03 113.704
4.22 6845.55 118.504
4.24 7207.25 121.59
4.26 7464.28 123.746
4.28 7739.04 126
4.3 8130.36 129.142
4.32 8436.35 131.556
4.34 8470.53 131.82
4.36 8014.38 128.22
4.38 7310.6 122.461
4.4 6832.84 118.396
4.42 7006.37 119.885
4.44 7753.47 126.114
4.46 8802.94 134.381
4.48 10113.2 144.037
4.5 11888.7 156.167
4.52 13917.5 168.97
4.54 15928.5 180.765
4.56 17145.6 187.541
4.58 16805.4 185.674
4.6 15094.2 175.967
4.62 12914.8 162.764
4.64 11079 150.758
4.66 9574.07 140.14
4.68 8727.1 133.805
4.7 8452.83 131.681
4.72 9250.17 137.75
4.74 11402.3 152.942
4.76 14572 172.894
4.78 17807.6 191.129
4.8 19635.6 200.7
4.82 19278.9 198.871
4.84 16920.5 186.308
4.86 13503.9 166.439
4.88 10284.7 145.251
4.9 7830.77 126.748
4.92 6699.34 117.227
4.94 6645.35 116.757
4.96 7474.15 123.823
4.98 8794.96 134.323
5 10139.4 144.22
5.02 10933.2 149.763
5.04 10973.9 150.039
5.06 10225.5 144.832
5.08 9241.28 137.686
5.1 8788.23 134.268
5.12 9243.51 137.702
5.14 10470 146.557
5.16 11584 154.154
5.18 12236 158.437
5.2 11747.8 155.238
5.22 10671.3 147.958
5.24 9237.83 137.656
5.26 8317.6 130.625
5.28 7958.88 127.776
5.3 8083.81 128.777
5.32 9129.11 136.845
5.34 11469.7 153.395
5.36 15128.2 176.164
5.38 18404.9 194.309
5.4 20627.2 205.704
5.42 20495 205.047
5.44 18726.5 195.998
5.46 16236.2 182.501
5.48 14316.4 171.372
5.5 13399 165.792
5.52 12760.3 161.792
5.54 11527.6 153.779
5.56 10005.5 143.266
5.58 8142.53 129.242
5.6 6786.5 117.992
5.62 6169.81 112.496
5.64 6136.97 112.199
5.66 6683.39 117.092
5.68 8115.23 129.021
5.7 11240.2 151.854
5.72 16001.4 181.176
5.74 20268.3 203.908
5.76 24004.2 221.905
5.78 24855.3 225.806
5.8 23044.4 217.425
5.82 18865.4 196.724
5.84 14500.1 172.467
5.86 10833.2 149.075
5.88 8662.6 133.305
5.9 8234.94 129.974
5.92 8895.19 135.083
5.94 10094.7 143.905
5.96 10924.2 149.7
5.98 11283.5 152.141
6 10769.7 148.637
6.02 9995.05 143.195
6.04 9329.76 138.343
6.06 9141.7 136.943
6.08 9183.61 137.257
6.1 9261.42 137.837
6.12 8829.19 134.582
6.14 8064.67 128.625
6.16 7155.87 121.155
6.18 6547.23 115.895
6.2 6394.66 114.533
6.22 6770.02 117.853
6.24 7239.06 121.863
6.26 7592.82 124.801
6.28 7662.21 125.37
6.3 7534.14 124.317
6.32 7473.6 123.821
6.34 7704.81 125.722
6.36 8235.48 129.978
6.38 8978.59 135.71
6.4 9683.62 140.946
6.42 9879.2 142.358
6.44 9630.83 140.556
6.46 9042.41 136.201
6.48 8318.63 130.631
6.5 7584.85 124.739
6.52 6994.9 119.789
6.54 6676.6 117.034
6.56 6753.99 117.703
6.58 7184.41 121.404
6.6 7916.87 127.439
6.62 8934.14 135.378
6.64 9758.24 141.486
6.66 10212.4 144.742
6.68 10094.1 143.896
6.7 9518.59 139.74
6.72 8879.37 134.967
6.74 8605.54 132.863
6.76 8599.53 132.819
6.78 8796.35 134.331
6.8 8942.92 135.45
6.82 8790.79 134.288
6.84 8448.31 131.646
6.86 7923.55 127.497
6.88 7438.51 123.528
6.9 6984.9 119.701
6.92 6543.67 115.857
6.94 6166.91 112.478
6.96 5895.98 109.98
6.98 5964.94 110.616
7 6399.72 114.585
7.02 7143.21 121.052
7.04 7966.11 127.832
7.06 8407.59 131.327
7.08 8427.06 131.48
7.1 7984.31 127.985
7.12 7464.51 123.743
7.14 7091.28 120.611
7.16 7172 121.294
7.18 7555.54 124.498
7.2 8126.95 129.121
7.22 8462.33 131.756
7.24 8558.74 132.505
7.26 8357.77 130.936
7.28 8236.94 129.991
7.3 8334.49 130.759
7.32 8778.38 134.197
7.34 9200.34 137.386
7.36 9428.89 139.073
7.38 9142.22 136.945
7.4 8476.3 131.859
7.42 7515.26 124.163
7.44 6496.78 115.45
7.46 5851.17 109.557
7.48 5464.84 105.882
7.5 5382.11 105.073
7.52 5421.18 105.46
7.54 5420.75 105.453
7.56 5573.1 106.919
7.58 5685.91 108
7.6 5762.66 108.729
7.62 5814 109.209
7.64 5716.75 108.295
7.66 5531.13 106.52
7.68 5372.02 104.976
7.7 5300.33 104.274
7.72 5388.7 105.141
7.74 5657.3 107.728
7.76 5988.32 110.836
7.78 6247.18 113.206
7.8 6442.67 114.964
7.82 6423.85 114.796
7.84 6306.84 113.751
7.86 6078.63 111.663
7.88 5782.85 108.915
7.9 5472.62 105.957
7.92 5214.62 103.43
7.94 5054.68 101.829
7.96 5194.85 103.232
7.98 5713.52 108.26
8 6681.77 117.084
8.02 7940.71 127.63
8.04 9242.7 137.695
8.06 10264.5 145.108
8.08 10715.8 148.265
8.1 10626.5 147.644
8.12 9956.44 142.919
8.14 9207.29 137.433
8.16 8389.51 131.19
8.18 7826.29 126.705
8.2 7557.85 124.519
8.22 7405.76 123.255
8.24 7198.09 121.513
8.26 6912.69 119.085
8.28 6613.6 116.475
8.3 6389.97 114.494
8.32 6293.03 113.625
8.34 6403.71 114.611
8.36 6698.67 117.227
8.38 7156.27 121.161
8.4 7668.19 125.426
8.42 8119.35 129.053
8.44 8346.49 130.85
8.46 8247.05 130.069
8.48 7887.24 127.202
8.5 7323.84 122.571
8.52 6730.64 117.512
8.54 6251.56 113.246
8.56 5948.92 110.464
8.58 5973.79 110.705
8.6 6182.77 112.619
8.62 6587.54 116.25
8.64 6983.29 119.688
8.66 7187.43 121.43
8.68 7221.86 121.713
8.7 7073.84 120.458
8.72 6782.1 117.959
8.74 6487.4 115.363
8.76 6246.44 113.196
8.78 6116.36 112.015
8.8 6022.54 111.147
8.82 5865.71 109.697
8.84 5628.5 107.456
8.86 5297.54 104.246
8.88 5005.81 101.334
8.9 4797.96 99.2093
8.92 4816.34 99.3973
8.94 4979.16 101.07
8.96 5212.6 103.408
8.98 5462.51 105.856
9 5578.68 106.976
9.02 5593.8 107.126
9.04 5509.63 106.311
9.06 5340.66 104.672
9.08 5157.51 102.866
9.1 4944.72 100.711
9.12 4794.16 99.1671
9.14 4741.09 98.6216
9.16 4742.81 98.6394
9.18 4806.48 99.294
9.2 4894.52 100.208
9.22 5036.88 101.651
9.24 5145.45 102.736
9.26 5205.97 103.346
9.28 5232.76 103.602
9.3 5155.3 102.839
9.32 4977.82 101.049
9.34 4761.72 98.837
9.36 4616.92 97.319
9.38 4545.91 96.5717
9.4 4622.41 97.3746
9.42 4758.41 98.7944
9.44 4966.87 100.949
9.46 5238.17 103.661
9.48 5525.83 106.46
9.5 5783.84 108.93
9.52 6072.98 111.623
9.54 6220.84 112.956
9.56 6214.45 112.912
9.58 6171.62 112.517
9.6 6035.75 111.274
9.62 5819.21 109.257
9.64 5514.15 106.364
9.66 5258.64 103.866
9.68 5026.78 101.544
9.7 4956.73 100.836
9.72 5029.15 101.574
9.74 5161.07 102.9
9.76 5315.31 104.413
9.78 5370.53 104.964
9.8 5421.96 105.465
9.82 5422.32 105.467
9.84 5379.53 105.049
9.86 5295.72 104.233
9.88 5142.12 102.706
9.9 5013.32 101.416
9.92 4933.66 100.593
9.94 4907.08 100.336
9.96 4932.64 100.588
9.98 4940.71 100.676
10 4970.43 100.98
10.02 5028.98 101.569
10.04 5078.66 102.068
10.06 5151.91 102.805
10.08 5220.58 103.491
10.1 5236.64 103.648
10.12 5288.59 104.159
10.14 5291.43 104.188
10.16 5228.07 103.558
10.18 5153.48 102.828
10.2 5075.57 102.033
10.22 5034.54 101.626
10.24 5079.23 102.078
10.26 5190.41 103.185
10.28 5304.75 104.32
10.3 5411.94 105.369
10.32 5474.71 105.977
10.34 5507.82 106.291
10.36 5509.94 106.317
10.38 5465.8 105.884
10.4 5287.12 104.146
10.42 5049.42 101.779
10.44 4778.91 99.0155
10.46 4485.53 95.9283
10.48 4318.61 94.1133
10.5 4188.14 92.698
10.52 4090.59 91.6026
10.54 4038.12 91.0186
10.56 4013.62 90.7314
10.58 4007.89 90.6794
10.6 4023.42 90.8481
10.62 4035.6 90.9854
10.64 4025.65 90.8838
10.66 4009.67 90.682
10.68 3982.9 90.3953
10.7 3975.65 90.3112
10.72 4008.91 90.6895
10.74 4092.23 91.6243
10.76 4186.91 92.6718
10.78 4286.3 93.7741
10.8 4389.7 94.8943
10.82 4519.41 96.283
10.84 4640.52 97.5674
10.86 4749.91 98.7165
10.88 4823.45 99.4779
10.9 4842.22 99.6592
10.92 4835.59 99.5977
10.94 4816.99 99.4077
10.96 4820.98 99.4491
10.98 4865.2 99.8969
11 4923.61 100.505
11.02 4967.72 100.952
11.04 5013.7 101.414
11.06 5032.07 101.602
11.08 5027.92 101.557
11.1 4986.4 101.137
11.12 4906.05 100.325
11.14 4788.61 99.1156
11.16 4653.3 97.7008
11.18 4498.88 96.0661
11.2 4373.33 94.7189
11.22 4297.04 93.886
11.24 4276.83 93.6702
11.26 4285.2 93.7555
11.28 4292.64 93.8428
11.3 4333.67 94.2868
11.32 4366.38 94.6407
11.34 4410.9 95.119
11.36 4460.46 95.6648
11.38 4479.43 95.8552
11.4 4503.55 96.1184
11.42 4529.97 96.4021
11.44 4612.82 97.2763
11.46 4721.11 98.4076
11.48 4861.88 99.8726
11.5 4940.9 100.672
11.52 4985.26 101.133
11.54 4999.57 101.266
11.56 4989.89 101.175
11.58 4943.81 100.708
11.6 4857 99.8133
11.62 4768.3 98.9063
11.64 4671.33 97.8909
11.66 4570.25 96.8278
11.68 4496.68 96.0434
11.7 4444.9 95.4925
11.72 4447.25 95.5085
11.74 4453.89 95.5869
11.76 4470.25 95.7577
11.78 4484.25 95.9181
11.8 4488.06 95.9501
11.82 4452.34 95.5697
11.84 4399.15 94.996
11.86 4319.76 94.1441
11.88 4241.55 93.2752
11.9 4153.71 92.3074
11.92 4064.39 91.3062
11.94 3969.69 90.2417
11.96 3836.73 88.7133
11.98 3739.72 87.591
12 3614.67 86.1081
12.02 3518.49 84.9642
12.04 3466.9 84.3244
12.06 3441.44 84.0257
12.08 3442.98 84.0413
12.1 3484 84.5399
12.12 3505.25 84.796
12.14 3526.16 85.0514
12.16 3545.22 85.2832
12.18 3570.03 85.5773
12.2 3594.92 85.874
12.22 3626.29 86.247
12.24 3642.36 86.4487
12.26 3637.01 86.3693
12.28 3625.97 86.2496
12.3 3609.52 86.053
12.32 3601.01 85.9484
12.34 3631.24 86.3095
12.36 3676.93 86.8488
12.38 3709.54 87.2332
12.4 3731.81 87.4989
12.42 3752.4 87.7283
12.44 3767.83 87.9232
12.46 3794.22 88.2216
12.48 3821.2 88.5332
12.5 3847.69 88.85
12.52 3860.77 88.9932
12.54 3853.79 88.9108
12.56 3820.78 88.5356
12.58 3788.32 88.1559
12.6 3773.35 87.9866
12.62 3767.4 87.9035
12.64 3782.19 88.0911
12.66 3817.5 88.4934
12.68 3839.71 88.7546
12.7 3846.21 88.8286
12.72 3848.88 88.8577
12.74 3849.56 88.8685
12.76 3856.91 88.9457
12.78 3876.3 89.1735
12.8 3870.38 89.1058
12.82 3851.49 88.8913
12.84 3841.14 88.7673
12.86 3826.12 88.5871
12.88 3819.46 88.5124
12.9 3841.87 88.7867
12.92 3872.12 89.1235
12.94 3901.12 89.456
12.96 3919.78 89.667
12.98 3935.7 89.8587
13 3949.15 90.0115
13.02 3949.49 90.0147
13.04 3943.16 89.9326
13.06 3927.94 89.7695
13.08 3915.14 89.6159
13.1 3899.32 89.4359
13.12 3873.85 89.1452
13.14 3820.01 88.5246
13.16 3763.85 87.8609
13.18 3699.44 87.1172
13.2 3640.42 86.4192
13.22 3604.16 85.9911
13.24 3584.98 85.7528
13.26 3583.72 85.7437
13.28 3588.04 85.7975
13.3 3604.52 85.9935
13.32 3602.33 85.9631
13.34 3603.2 85.9746
13.36 3595.35 85.8843
13.38 3602.27 85.9583
13.4 3611.62 86.0773
13.42 3622.48 86.2081
13.44 3640.03 86.4036
13.46 3658.34 86.6388
13.48 3671.24 86.7759
13.5 3700.72 87.1345
13.52 3715.35 87.2985
13.54 3719.44 87.3469
13.56 3732.37 87.504
13.58 3729.71 87.4732
13.6 3711.6 87.2586
13.62 3699.59 87.1254
13.64 3681.15 86.898
13.66 3656.87 86.614
13.68 3649.95 86.5239
13.7 3643.79 86.4614
13.72 3629.61 86.2833
13.74 3616.18 86.1372
13.76 3595.74 85.8874
13.78 3577.17 85.6604
13.8 3553.65 85.3874
13.82 3544.51 85.262
13.84 3545.86 85.2881
13.86 3556.94 85.4252
13.88 3573.23 85.6267
13.9 3585.82 85.7593
13.92 3582.41 85.7221
13.94 3570.29 85.5754
13.96 3534.74 85.1639
13.98 3509.51 84.8521
14 3491.62 84.6303
14.02 3488.75 84.5993
14.04 3497.29 84.6977
14.06 3520.71 84.9886
14.08 3535.97 85.1655
14.1 3532.54 85.1331
14.12 3528.61 85.0772
14.14 3522.97 85.0176
14.16 3510.28 84.8553
14.18 3498.41 84.709
14.2 3495.86 84.6882
14.22 3495.04 84.673
14.24 3490.54 84.616
14.26 3480.02 84.5013
14.28 3467.04 84.3398
14.3 3438.47 83.9844
14.32 3415.37 83.7004
14.34 3396.84 83.4747
14.36 3378.9 83.2494
14.38 3358.1 83.0075
14.4 3341.92 82.7945
14.42 3307.41 82.365
14.44 3277.84 82.0002
14.46 3249.92 81.6456
14.48 3225.58 81.3445
14.5 3213.14 81.1947
14.52 3205.65 81.0901
14.54 3209.37 81.1361
14.56 3208.71 81.1395
14.58 3217.89 81.2458
14.6 3219.41 81.2679
14.62 3222.17 81.2964
14.64 3214.72 81.2196
14.66 3210.42 81.1463
14.68 3199.14 81.0148
14.7 3189.93 80.8943
14.72 3177.9 80.7423
14.74 3184.27 80.8245
14.76 3189.97 80.8884
14.78 3216.35 81.2213
14.8 3228.78 81.4009
14.82 3238.86 81.5027
14.84 3231.68 81.418
14.86 3217.14 81.2379
14.88 3200.65 81.0359
14.9 3177.88 80.7504
14.92 3168.67 80.6175
14.94 3170.29 80.6435
14.96 3186.04 80.8502
14.98 3200.42 81.0227
15 3225.86 81.3515
15.02 3227.91 81.3754
15.04 3215.03 81.212
15.06 3199.29 81.0107
15.08 3175.71 80.714
15.1 3166.91 80.5977
15.12 3164.38 80.5768
15.14 3173.33 80.6793
15.16 3180.71 80.7873
15.18 3185.91 80.8349
15.2 3182.92 80.8091
15.22 3172.85 80.6686
15.24 3146.69 80.3461
15.26 3132.04 80.1569
15.28 3117.03 79.9637
15.3 3112.37 79.9048
15.32 3117.14 79.9711
15.34 3125.29 80.0698
15.36 3117.96 79.9704
15.38 3104.92 79.8093
15.4 3081.54 79.5098
15.42 3058.22 79.1999
15.44 3040.55 78.9774
15.46 3041.11 78.9901
15.48 3040.36 78.9694
15.5 3038.47 78.9569
15.52 3049.97 79.079
15.54 3048.15 79.0942
15.56 3043.4 79.0066
15.58 3043.85 79.0241
15.6 3050.6 79.1084
15.62 3049.28 79.0934
15.64 3055.62 79.1633
15.66 3061.36 79.2513
15.68 3055.48 79.1735
15.7 3051.76 79.118
15.72 3041.39 78.9789
15.74 3032.13 78.8764
15.76 3023.67 78.7516
15.78 3025 78.7728
15.8 3032.65 78.867
15.82 3026.83 78.8055
15.84 3024.11 78.7625
15.86 3016.65 78.6563
15.88 2997.81 78.4263
15.9 2991.48 78.3409
15.92 2990.29 78.3265
15.94 2999.31 78.4355
15.96 3008.85 78.573
15.98 3023.32 78.7422
16 3041.7 79.0015
16.02 3048.05 79.0639
16.04 3047.24 79.0694
16.06 3052.75 79.1365
16.08 3053.37 79.1354
16.1 3052.38 79.1364
16.12 3055.85 79.1722
16.14 3057.8 79.2046
16.16 3067.92 79.3291
16.18 3075.55 79.4258
16.2 3078.32 79.4749
16.22 3075.88 79.4359
16.24 3068.98 79.3448
16.26 3049.75 79.0971
16.28 3037.91 78.9397
16.3 3020.05 78.7144
16.32 3007.75 78.5491
16.34 2996.54 78.4054
16.36 2986.13 78.264
16.38 2978.73 78.1645
16.4 2967.55 78.0268
16.42 2971.5 78.0781
16.44 2972.41 78.0893
16.46 2974.11 78.1146
16.48 2973.02 78.0842
16.5 2960.39 77.9385
16.52 2938.96 77.6521
16.54 2925.47 77.4543
16.56 2914.32 77.3179
16.58 2903.02 77.1822
16.6 2902.54 77.1619
16.62 2910.75 77.2711
16.64 2916.67 77.351
16.66 2918.27 77.3695
16.68 2930.84 77.5389
16.7 2923.92 77.4549
16.72 2914.4 77.3149
16.74 2907.14 77.2148
16.76 2898.43 77.1114
16.78 2888.86 76.9924
16.8 2886.12 76.9401
16.82 2891.78 77.0191
16.84 2895.45 77.0743
16.86 2899.81 77.1178
16.88 2902.3 77.1608
16.9 2906.71 77.2244
16.92 2894.84 77.0587
16.94 2885.99 76.9503
16.96 2878.26 76.8436
16.98 2865.09 76.6531
17 2855.77 76.5441
17.02 2855.55 76.5339
17.04 2847.49 76.4297
17.06 2837.3 76.2879
17.08 2830.05 76.2004
17.1 2821.63 76.0783
17.12 2802.12 75.8135
17.14 2788.51 75.6431
17.16 2772.19 75.4037
17.18 2756.92 75.1974
17.2 2746.78 75.0717
17.22 2738.34 74.9434
17.24 2722.76 74.7435
17.26 2709.47 74.5497
17.28 2700.15 74.4274
17.3 2688.66 74.2637
17.32 2678.77 74.1321
17.34 2660.48 73.8761
17.36 2657.17 73.8368
17.38 2655.89 73.8059
17.4 2651.6 73.755
17.42 2647.31 73.6974
17.44 2648.18 73.6976
17.46 2649.39 73.7242
17.48 2651.07 73.7491
17.5 2649.99 73.7236
17.52 2645.77 73.6763
17.54 2639.74 73.5913
17.56 2633.03 73.5002
17.58 2626.78 73.3998
17.6 2626.58 73.4021
17.62 2628.6 73.4361
17.64 2634.12 73.5142
17.66 2642.01 73.6186
17.68 2647.97 73.7004
17.7 2646.38 73.6854
17.72 2636.85 73.54
17.74 2643.79 73.6449
17.76 2645.08 73.6643
17.78 2640.9 73.6112
17.8 2644.98 73.6545
17.82 2645.2 73.6617
17.84 2644.24 73.6517
17.86 2645.3 73.6646
17.88 2637.48 73.5523
17.9 2640.13 73.5997
17.92 2644.88 73.6565
17.94 2653.91 73.7834
17.96 2656.18 73.8121
17.98 2654.37 73.7967
18 2654.2 73.7834
18.02 2652.36 73.7682
18.04 2651.24 73.7486
18.06 2645.27 73.6649
18.08 2643.85 73.642
18.1 2645.78 73.6731
18.12 2636.28 73.5474
18.14 2632.29 73.486
18.16 2627.01 73.4006
18.18 2622.66 73.3487
18.2 2621.31 73.3276
18.22 2616.17 73.2698
18.24 2618.47 73.2864
18.26 2609.62 73.1698
18.28 2611.72 73.1833
18.3 2611.69 73.198
18.32 2612 73.215
18.34 2608.1 73.1354
18.36 2607.97 73.1368
18.38 2613.13 73.2201
18.4 2607.12 73.1336
18.42 2607.1 73.1323
18.44 2603.05 73.0658
18.46 2597.29 73.0065
18.48 2595.29 72.9588
18.5 2594.27 72.9542
18.52 2594.57 72.9584
18.54 2586.81 72.8552
18.56 2587.83 72.8433
18.58 2587 72.8539
18.6 2585.94 72.835
18.62 2590.8 72.9061
18.64 2591.79 72.924
18.66 2592.22 72.9154
18.68 2590.59 72.8953
18.7 2586.38 72.8333
18.72 2575.97 72.6966
18.74 2564.77 72.5349
18.76 2551.6 72.3539
18.78 2548.05 72.3007
18.8 2538.71 72.1644
18.82 2539.59 72.173
18.84 2536.42 72.1397
18.86 2532.6 72.0738
18.88 2526.07 71.9892
18.9 2525.91 71.9841
18.92 2523.33 71.9492
18.94 2521.33 71.9169
18.96 2513.83 71.8103
18.98 2511.22 71.7827
19 2505.32 71.6806
19.02 2491.5 71.4968
19.04 2491.02 71.4945
19.06 2487.56 71.4192
19.08 2482.7 71.3731
19.1 2479.79 71.3208
19.12 2480.11 71.3305
19.14 2480.34 71.3381
19.16 2472.35 71.2122
19.18 2467.8 71.1439
19.2 2469.01 71.1719
19.22 2461.76 71.0737
19.24 2461.39 71.0468
19.26 2458.02 71.0121
19.28 2455.17 70.9755
19.3 2449.89 70.8877
19.32 2445.72 70.8365
19.34 2445.17 70.819
19.36 2444.16 70.8118
19.38 2443.57 70.8083
19.4 2442.86 70.7874
19.42 2441.75 70.7794
19.44 2442.52 70.7843
19.46 2443.04 70.7916
19.48 2443.15 70.786
19.5 2440.54 70.7577
19.52 2437.41 70.7129
19.54 2430.82 70.6158
19.56 2426.07 70.5533
19.58 2425.31 70.5301
19.6 2421.61 70.4927
19.62 2421.06 70.4687
19.64 2420.08 70.4627
19.66 2413.74 70.3602
19.68 2410.2 70.318
19.7 2407.2 70.2747
19.72 2402.2 70.2003
19.74 2396.37 70.1199
19.76 2391.46 70.0375
19.78 2385.47 69.9522
19.8 2379.59 69.87
19.82 2374.33 69.7965
19.84 2364.05 69.6362
19.86 2354.36 69.4884
19.88 2348.11 69.4109
19.9 2338.16 69.261
19.92 2335.51 69.2128
19.94 2326.4 69.0824
19.96 2321.72 68.9952
19.98 2317.17 68.9602
20 2310.96 68.8518
20.02 2307.01 68.7913
20.04 2298.18 68.661
20.06 2292.18 68.5789
20.08 2287.68 68.498
20.1 2277.29 68.3523
20.12 2274.07 68.2907
20.14 2267.31 68.2087
20.16 2265.29 68.1644
20.18 2266.32 68.1894
20.2 2269.04 68.2131
20.22 2266.73 68.1956
20.24 2269.84 68.2411
20.26 2269.56 68.2365
20.28 2268.75 68.2268
20.3 2267.01 68.1822
20.32 2265.67 68.1836
20.34 2266.54 68.1886
20.36 2265.13 68.1715
20.38 2262.54 68.1277
20.4 2260.23 68.0873
20.42 2259.08 68.0736
20.44 2257.74 68.0582
20.46 2257.66 68.0574
20.48 2256.19 68.0211
20.5 2256.12 68.0293
20.52 2258.49 68.0691
20.54 2259.59 68.0852
20.56 2263.51 68.1408
20.58 2263.19 68.1316
20.6 2263.58 68.1499
20.62 2260.73 68.0983
20.64 2259.12 68.0772
20.66 2257.73 68.0492
20.68 2251.8 67.9664
20.7 2249 67.9355
20.72 2244.3 67.8538
20.74 2243.26 67.8359
20.76 2243.14 67.8304
20.78 2240.35 67.8012
20.8 2240.34 67.7857
20.82 2235.03 67.7179
20.84 2235.55 67.7138
20.86 2233.17 67.6946
20.88 2234.47 67.6974
20.9 2233.02 67.6774
20.92 2229.19 67.6206
20.94 2228.09 67.6125
20.96 2226.8 67.5855
20.98 2222.36 67.5165
21 2221.72 67.5132
21.02 2225.76 67.5693
21.04 2223.39 67.5337
21.06 2217.19 67.4501
21.08 2221.55 67.5074
21.1 2223.68 67.54
21.12 2219.84 67.4767
21.14 2218.05 67.4619
21.16 2217.74 67.4467
21.18 2213.98 67.3856
21.2 2209.59 67.3328
21.22 2207.7 67.2944
21.24 2203.89 67.2407
21.26 2204.38 67.2477
21.28 2200.49 67.1796
21.3 2193.19 67.0759
21.32 2193.17 67.0758
21.34 2189.23 67.007
21.36 2184.76 66.9592
21.38 2183.93 66.93
21.4 2180.3 66.8688
21.42 2174.79 66.8009
21.44 2173.03 66.7646
21.46 2169.46 66.7153
21.48 2170 66.7161
21.5 2165.22 66.6541
21.52 2163.65 66.6239
21.54 2155.52 66.4781
21.56 2154.77 66.4965
21.58 2153.18 66.4531
21.6 2149.06 66.397
21.62 2148 66.3916
21.64 2141.14 66.265
21.66 2136.13 66.2146
21.68 2136.3 66.2014
21.7 2131.38 66.1225
21.72 2129.69 66.0878
21.74 2124.86 66.025
21.76 2122.15 65.9882
21.78 2119.06 65.9351
21.8 2119.85 65.9347
21.82 2116.49 65.8829
21.84 2116.74 65.9124
21.86 2118.48 65.9255
21.88 2118.26 65.9111
21.9 2118.51 65.9179
21.92 2115.23 65.8788
21.94 2114.4 65.8586
21.96 2109.98 65.781
21.98 2101.53 65.6726
22 2096.52 65.5763
22.02 2099.89 65.6204
22.04 2094.28 65.5562
22.06 2091.64 65.5022
22.08 2091.41 65.5
22.1 2089.83 65.483
22.12 2083.72 65.3675
22.14 2081.71 65.3522
22.16 2082.32 65.3552
22.18 2078.24 65.3052
22.2 2077.62 65.2736
22.22 2072.4 65.2074
22.24 2070.11 65.1652
22.26 2069.79 65.1687
22.28 2068.42 65.1359
22.3 2061.22 65.0198
22.32 2060.08 65.0135
22.34 2060.4 65.0138
22.36 2057.45 64.9613
22.38 2051.02 64.867
22.4 2051.83 64.8807
22.42 2051.86 64.8796
22.44 2049.38 64.8441
22.46 2044.2 64.7496
22.48 2046.31 64.7846
22.5 2044.02 64.7735
22.52 2042.38 64.7175
22.54 2039.06 64.6875
22.56 2039.34 64.673
22.58 2035.63 64.6245
22.6 2033.62 64.5931
22.62 2031.37 64.5444
22.64 2029.31 64.5101
22.66 2025.16 64.4661
22.68 2025.66 64.4636
22.7 2019.1 64.3414
22.72 2014.74 64.3
22.74 2011.29 64.2382
22.76 2011.56 64.2384
22.78 2007.91 64.1818
22.8 2006.57 64.1525
22.82 2002.23 64.099
22.84 2001.68 64.0814
22.86 1997.6 64
22.88 1998.37 64.0337
22.9 1995.36 63.9782
22.92 1991.32 63.9162
22.94 1988.19 63.8712
22.96 1988.39 63.8675
22.98 1984.9 63.8126
23 1981.14 63.7486
23.02 1982.03 63.7611
23.04 1982.95 63.7825
23.06 1982.65 63.7805
23.08 1978.83 63.7103
23.1 1977.84 63.6918
23.12 1976.34 63.6759
23.14 1972.72 63.618
23.16 1971.05 63.5819
23.18 1967.26 63.5288
23.2 1969.67 63.5715
23.22 1967.34 63.5265
23.24 1966.5 63.5134
23.26 1964.08 63.483
23.28 1968 63.5368
23.3 1964.56 63.4778
23.32 1960.6 63.4295
23.34 1957.85 63.3695
23.36 1960.12 63.417
23.38 1955.87 63.3304
23.4 1955.83 63.3484
23.42 1951.44 63.2701
23.44 1949.57 63.2519
23.46 1950.54 63.2544
23.48 1952.94 63.2805
23.5 1948.01 63.2275
23.52 1948.35 63.2227
23.54 1946.21 63.1842
23.56 1945.48 63.1711
23.58 1944.99 63.1755
23.6 1941.25 63.1172
23.62 1939.22 63.0553
23.64 1935.95 63.0215
23.66 1931.5 62.9516
23.68 1936.42 63.0184
23.7 1929.85 62.9222
23.72 1927.64 62.8853
23.74 1927.47 62.8695
23.76 1927.39 62.8951
23.78 1929.28 62.9136
23.8 1925.63 62.8602
23.82 1922.13 62.7866
23.84 1924.57 62.8307
23.86 1922.15 62.7836
23.88 1917.54 62.7212
23.9 1914.85 62.6775
23.92 1909.81 62.6081
23.94 1912.05 62.6229
23.96 1909.97 62.5915
23.98 1903.63 62.4933
24 1903.55 62.4861
24.02 1904.91 62.5108
24.04 1903.35 62.4888
24.06 1900.81 62.4304
24.08 1895.5 62.3655
24.1 1896.93 62.3809
24.12 1898.08 62.41
24.14 1892.83 62.3073
24.16 1887.07 62.2221
24.18 1885.76 62.1901
24.2 1887.46 62.2304
24.22 1884.45 62.1785
24.24 1882.13 62.141
24.26 1875.91 62.0367
24.28 1874.67 62.0115
24.3 1873.99 62.0004
24.32 1872.12 61.9593
24.34 1869.54 61.9371
24.36 1866.82 61.8883
24.38 1865.58 61.8554
24.4 1864.16 61.8363
24.42 1861.91 61.8152
24.44 1859.45 61.7504
24.46 1853.74 61.6863
24.48 1854.47 61.6737
24.5 1852.51 61.6382
24.52 1851.24 61.6295
24.54 1847.45 61.5547
24.56 1841.78 61.4711
24.58 1839.21 61.4331
24.6 1841.62 61.4614
24.62 1839.35 61.4233
24.64 1833.48 61.3264
24.66 1831.11 61.2882
24.68 1830.68 61.2833
24.7 1829.07 61.2458
24.72 1824.27 61.1865
24.74 1819.43 61.0978
24.76 1819.14 61.0752
24.78 1816.93 61.062
24.8 1815.55 61.0306
24.82 1814.09 60.9975
24.84 1809.68 60.931
24.86 1809.85 60.9389
24.88 1806.61 60.8799
24.9 1805.54 60.8563
24.92 1804.19 60.8424
24.94 1802.92 60.8054
24.96 1799.03 60.7582
24.98 1797.14 60.7195
25 1797.54 60.7124
25.02 1795.47 60.705
25.04 1792.87 60.6347
25.06 1788.09 60.5754
25.08 1785.64 60.5296
25.1 1781.12 60.436
25.12 1783.36 60.4743
25.14 1779.35 60.4302
25.16 1775.8 60.3489
25.18 1773.76 60.3224
25.2 1774.89 60.3459
25.22 1773.9 60.3188
25.24 1769.45 60.242
25.26 1767.52 60.2238
25.28 1765.56 60.1764
25.3 1762.78 60.1435
25.32 1764.85 60.1557
25.34 1759.91 60.0886
25.36 1756.25 60.0171
25.38 1754.11 59.992
25.4 1755.37 59.9978
25.42 1751.98 59.9596
25.44 1750.56 59.9218
25.46 1746.18 59.8522
25.48 1746.64 59.8593
25.5 1745.77 59.8474
25.52 1743.77 59.8032
25.54 1740.43 59.7574
25.56 1740.09 59.7388
25.58 1737.2 59.6993
25.6 1735.51 59.669
25.62 1734.43 59.6527
25.64 1730.91 59.5906
25.66 1731.35 59.5894
25.68 1728.57 59.5466
25.7 1727.43 59.544
25.72 1726.96 59.4993
25.74 1726.44 59.531
25.76 1722.94 59.4468
25.78 1720.01 59.3927
25.8 1719.17 59.3834
25.82 1714.36 59.3047
25.84 1716.01 59.3418
25.86 1711.85 59.2707
25.88 1713.34 59.2797
25.9 1712.75 59.2511
25.92 1710 59.2396
25.94 1711.26 59.2613
25.96 1709.37 59.2126
25.98 1705.87 59.1481
26 1700.73 59.0716
26.02 1705.78 59.1515
26.04 1704.38 59.1444
26.06 1698.01 59.0136
26.08 1700.24 59.0467
26.1 1693.77 58.9644
26.12 1697.19 58.9843
26.14 1696.04 58.9951
26.16 1690.89 58.8951
26.18 1688.87 58.8638
26.2 1688.61 58.8682
26.22 1686.74 58.8272
26.24 1689.9 58.8682
26.26 1686.13 58.8167
26.28 1683.99 58.7726
26.3 1683.61 58.7763
26.32 1682.5 58.7442
26.34 1680.03 58.7033
26.36 1677.27 58.6513
26.38 1673.98 58.6157
26.4 1675.06 58.6095
26.42 1674.15 58.6069
26.44 1670.9 58.5355
26.46 1669.53 58.5403
26.48 1666.68 58.4598
26.5 1663.18 58.4206
26.52 1662.81 58.3973
26.54 1659.99 58.36
26.56 1660.49 58.3546
26.58 1658.4 58.3307
26.6 1654.7 58.2571
26.62 1651.76 58.2118
26.64 1651.01 58.1933
26.66 1646.15 58.1214
26.68 1648.93 58.1586
26.7 1648.93 58.1539
26.72 1641.77 58.032
26.74 1642.77 58.0497
26.76 1639.87 58.0163
26.78 1639.61 58.0016
26.8 1639.11 57.9715
26.82 1633.73 57.8932
26.84 1632.54 57.8625
26.86 1631.52 57.8442
26.88 1629.77 57.8288
26.9 1628.27 57.8055
26.92 1629.42 57.806
26.94 1623.1 57.6917
26.96 1620.3 57.6596
26.98 1622.19 57.6923
27 1620.18 57.6552
27.02 1617.45 57.6007
27.04 1617.27 57.5972
27.06 1612.67 57.5143
27.08 1611.21 57.5018
27.1 1608.3 57.4296
27.12 1607.59 57.4297
27.14 1605.73 57.4084
27.16 1604.09 57.3556
27.18 1599.5 57.2786
27.2 1597.05 57.235
27.22 1596.53 57.234
27.24 1595.74 57.2
27.26 1595.48 57.1973
27.28 1594.72 57.2136
27.3 1591.62 57.1387
27.32 1588.06 57.0762
27.34 1585.93 57.0429
27.36 1585.02 57.0011
27.38 1582.09 56.9762
27.4 1578.36 56.9148
27.42 1578.91 56.8974
27.44 1577.6 56.9023
27.46 1576.71 56.864
27.48 1576.87 56.8743
27.5 1574.14 56.8342
27.52 1573.15 56.8155
27.54 1572.09 56.7852
27.56 1567.69 56.702
27.58 1567.09 56.6823
27.6 1564.3 56.6738
27.62 1564.52 56.6339
27.64 1564.25 56.6461
27.66 1559.51 56.563
27.68 1560.21 56.5729
27.7 1557.23 56.5354
27.72 1555.62 56.4728
27.74 1551.01 56.4287
27.76 1551.49 56.3942
27.78 1549.71 56.3882
27.8 1548.38 56.3559
27.82 1545.08 56.2985
27.84 1540.56 56.2263
27.86 1541.41 56.2182
27.88 1541.11 56.2214
27.9 1536.13 56.1434
27.92 1534.19 56.102
27.94 1534.02 56.1042
27.96 1528.43 55.9856
27.98 1526.53 55.979
28 1524.48 55.9165
28.02 1525.92 55.9299
28.04 1520.53 55.855
28.06 1520.42 55.8615
28.08 1516.48 55.7572
28.1 1514.35 55.7416
28.12 1515.77 55.7653
28.14 1513.88 55.7297
28.16 1511.62 55.682
28.18 1507.75 55.6316
28.2 1506.86 55.5809
28.22 1504.83 55.5666
28.24 1502.47 55.5177
28.26 1501.59 55.5128
28.28 1498.1 55.4256
28.3 1495.72 55.3782
28.32 1494.87 55.3708
28.34 1493.04 55.3579
28.36 1491.96 55.3177
28.38 1490.34 55.2777
28.4 1487.88 55.2618
28.42 1486 55.2136
28.44 1483.29 55.1482
28.46 1481.66 55.133
28.48 1478.3 55.0979
28.5 1478.61 55.052
28.52 1475 55.0168
28.54 1474.81 55.0037
28.56 1472.5 54.9569
28.58 1470.67 54.9429
28.6 1468.69 54.8844
28.62 1468.04 54.8612
28.64 1467.84 54.8829
28.66 1465.46 54.8213
28.68 1463.18 54.7981
28.7 1459.8 54.7057
28.72 1457.24 54.6884
28.74 1456.97 54.6612
28.76 1455.67 54.6428
28.78 1456.63 54.6794
28.8 1454.38 54.6129
28.82 1451.38 54.5685
28.84 1448.68 54.5232
28.86 1447.98 54.4938
28.88 1446.86 54.4863
28.9 1446.15 54.4588
28.92 1441.68 54.3815
28.94 1444.84 54.4498
28.96 1442.86 54.3837
28.98 1442.34 54.4034
29 1437.13 54.2976
29.02 1435.14 54.2609
29.04 1436.68 54.2757
29.06 1431.46 54.2052
29.08 1431.2 54.1759
29.1 1427.24 54.1139
29.12 1422.51 54.0201
29.14 1419.95 53.9758
29.16 1418.3 53.9317
29.18 1416.47 53.9044
29.2 1413.71 53.8654
29.22 1412.7 53.8188
29.24 1408.61 53.7524
29.26 1404.5 53.6833
29.28 1402.85 53.6742
29.3 1402.86 53.6201
29.32 1399.26 53.5577
29.34 1394.17 53.4966
29.36 1395.77 53.5162
29.38 1396.59 53.5103
29.4 1393.73 53.4759
29.42 1386.98 53.3252
29.44 1385.67 53.3446
29.46 1383.04 53.2707
29.48 1381.77 53.2108
29.5 1381.52 53.2321
29.52 1376 53.1436
29.54 1374.97 53.0959
29.56 1371.05 53.0465
29.58 1368.61 52.9868
29.6 1366.28 52.9223
29.62 1362.55 52.9054
29.64 1362.99 52.8562
29.66 1366.2 52.9247
29.68 1360.08 52.8418
29.7 1357.88 52.7681
29.72 1356.3 52.7351
29.74 1353.25 52.6977
29.76 1352.16 52.6777
29.78 1351.5 52.6535
29.8 1351.78 52.6599
29.82 1348.16 52.5854
29.84 1346.39 52.5602
29.86 1340.11 52.4526
29.88 1338.12 52.3811
29.9 1335.84 52.3522
29.92 1332.96 52.2664
29.94 1331.1 52.2494
29.96 1330.24 52.2515
29.98 1327.63 52.1855
30 1326.91 52.1809
30.02 1324.88 52.1313
30.04 1323.45 52.0987
30.06 1321.88 52.0652
30.08 1319.27 52.0641
30.1 1315.17 51.9211
30.12 1312.31 51.8692
30.14 1312.88 51.8947
30.16 1311.99 51.8992
30.18 1307.15 51.7808
30.2 1304.29 51.7221
30.22 1305.02 51.7285
30.24 1302.15 51.6786
30.26 1300.73 51.656
30.28 1297.52 51.5918
30.3 1296.84 51.5715
30.32 1294.95 51.5455
30.34 1295.8 51.5683
30.36 1292.27 51.4804
30.38 1290.09 51.4418
30.4 1287.7 51.3921
30.42 1287.26 51.3969
30.44 1285.88 51.3523
30.46 1282.18 51.2899
30.48 1278.95 51.2224
30.5 1275.93 51.164
30.52 1275.06 51.144
30.54 1272.03 51.108
30.56 1272.3 51.0581
30.58 1269.46 51.0651
30.6 1266.56 50.9447
30.62 1266.18 50.9759
30.64 1263.94 50.9058
30.66 1263.93 50.8955
30.68 1261.4 50.8963
30.7 1258.74 50.7903
30.72 1252.86 50.7303
30.74 1255.4 50.7227
30.76 1250.6 50.6582
30.78 1253.5 50.7166
30.8 1250.71 50.6445
30.82 1246.47 50.5465
30.84 1245.47 50.5803
30.86 1245.7 50.5107
30.88 1241.97 50.5065
30.9 1238.7 50.3983
30.92 1238.3 50.3954
30.94 1236.18 50.3722
30.96 1232.14 50.2585
30.98 1232.3 50.2643
31 1231.36 50.2859
31.02 1229.17 50.2069
31.04 1228.95 50.1978
31.06 1224.64 50.1638
31.08 1227.75 50.1476
31.1 1224.03 50.141
31.12 1221.3 50.0376
31.14 1219.26 49.9963
31.16 1216.46 49.9907
31.18 1214.61 49.9014
31.2 1216.14 49.9337
31.22 1212.52 49.8625
31.24 1207.79 49.7856
31.26 1207.47 49.7754
31.28 1209.36 49.7796
31.3 1205.32 49.7113
31.32 1201.32 49.6501
31.34 1200.59 49.639
31.36 1199.28 49.6119
31.38 1195.61 49.539
31.4 1196.43 49.5072
31.42 1193.28 49.4903
31.44 1195.23 49.5223
31.46 1189.97 49.4127
31.48 1189.19 49.3918
31.5 1186.95 49.3468
31.52 1184.08 49.2695
31.54 1183.05 49.2769
31.56 1183.69 49.2502
31.58 1178.45 49.1722
31.6 1177.3 49.1581
31.62 1175.69 49.1096
31.64 1173.45 49.0755
31.66 1176.36 49.0756
31.68 1171.93 49.0504
31.7 1171.51 49.0279
31.72 1167.9 48.9537
31.74 1167.58 48.9441
31.76 1165.78 48.9113
31.78 1165.52 48.8636
31.8 1160.12 48.7752
31.82 1161.88 48.8316
31.84 1157.57 48.7528
31.86 1155.08 48.6709
31.88 1150.78 48.5743
31.9 1153.33 48.6071
31.92 1151.4 48.6284
31.94 1155.92 48.6967
31.96 1147.04 48.5222
31.98 1147.44 48.5222
32 1148.03 48.5033
32.02 1141.76 48.4311
32.04 1143.03 48.3795
32.06 1140.8 48.3818
32.08 1137.6 48.3239
32.1 1135.77 48.2725
32.12 1138.31 48.3091
32.14 1132.15 48.2142
32.16 1133.07 48.182
32.18 1129.33 48.1557
32.2 1127.72 48.1007
32.22 1125.07 48.0452
32.24 1122.2 47.9853
32.26 1123.65 47.9831
32.28 1120.76 47.9622
32.3 1118.47 47.8977
32.32 1117.53 47.8807
32.34 1114.24 47.8226
32.36 1114.58 47.7869
32.38 1110.82 47.75
32.4 1107.51 47.6662
32.42 1109.02 47.694
32.44 1107.6 47.6686
32.46 1106.65 47.6392
32.48 1102.74 47.5675
32.5 1099.72 47.5137
32.52 1098.9 47.5154
32.54 1096.61 47.3722
32.56 1093.81 47.4123
32.58 1096.31 47.4108
32.6 1094.15 47.3808
32.62 1092.63 47.3286
32.64 1092.21 47.3197
32.66 1087.22 47.258
32.68 1088.29 47.2655
32.7 1086.11 47.1683
32.72 1084.13 47.1513
32.74 1079.19 47.0669
32.76 1082.37 47.1134
32.78 1081.13 47.051
32.8 1076.38 47.0229
32.82 1078.15 47.0383
32.84 1077.64 47.0177
32.86 1074.23 46.9407
32.88 1068.82 46.8274
32.9 1068.22 46.8332
32.92 1070.55 46.8406
32.94 1066.96 46.8008
32.96 1066.67 46.8029
32.98 1070.55 46.7906
33 1063.15 46.7396
33.02 1060.54 46.6629
33.04 1059.53 46.5854
33.06 1060.99 46.6493
33.08 1057.27 46.5989
33.1 1055.76 46.5438
33.12 1057.12 46.5366
33.14 1055 46.5393
33.16 1053.86 46.4897
33.18 1053.19 46.4803
33.2 1050.81 46.415
33.22 1048.38 46.3668
33.24 1046.6 46.3289
33.26 1047.76 46.3677
33.28 1043.07 46.2532
33.3 1041.86 46.2408
33.32 1042.31 46.2364
33.34 1039.51 46.166
33.36 1037.85 46.1638
33.38 1034.55 46.0637
33.4 1037.19 46.1305
33.42 1032.88 46.0331
33.44 1032.36 46.0169
33.46 1032.85 46.0116
33.48 1026.68 45.9215
33.5 1025.77 45.8566
33.52 1027.97 45.9229
33.54 1023.55 45.8141
33.56 1023.11 45.8243
33.58 1020.42 45.756
33.6 1020 45.7631
33.62 1017.26 45.6603
33.64 1018.58 45.6522
33.66 1016.01 45.655
33.68 1011.64 45.5976
33.7 1010.81 45.5453
33.72 1011.25 45.4957
33.74 1005.82 45.4501
33.76 1005.45 45.4389
33.78 1006.24 45.4256
33.8 1004.6 45.3873
33.82 1001.98 45.3561
33.84 1004.39 45.3756
33.86 1002.33 45.3464
33.88 998.32 45.2852
33.9 1000.21 45.2953
33.92 997.803 45.1837
33.94 995.402 45.2446
33.96 994.193 45.1534
33.98 991.056 45.0928
34 992.058 45.1011
34.02 992.625 45.1139
34.04 992.156 45.1139
34.06 986.108 44.9988
34.08 984.545 44.9293
34.1 981.924 44.9099
34.12 982.505 44.866
34.14 981.962 44.8797
34.16 980.971 44.8484
34.18 976.639 44.7645
34.2 976.128 44.7585
34.22 975.042 44.7362
34.24 973.868 44.6871
34.26 971.475 44.6247
34.28 972.041 44.6616
34.3 973.624 44.6743
34.32 969.338 44.6264
34.34 968.798 44.5273
34.36 963.552 44.501
34.38 964.571 44.4702
34.4 968.545 44.5629
34.42 964.51 44.4723
34.44 967.823 44.5525
34.46 963.911 44.4801
34.48 965.703 44.5208
34.5 965.543 44.4798
34.52 963.825 44.4869
34.54 964.477 44.4681
34.56 967.428 44.5614
34.58 962.13 44.401
34.6 959.428 44.3905
34.62 959.934 44.3567
34.64 962.353 44.4398
34.66 959.258 44.376
34.68 961.807 44.4275
34.7 958.579 44.3515
34.72 958.638 44.3067
34.74 955.361 44.27
34.76 956.107 44.2899
34.78 956.11 44.3073
34.8 957.771 44.3451
34.82 950.529 44.1376
34.84 952.68 44.1917
34.86 948.849 44.1252
34.88 950.032 44.1561
34.9 949.187 44.0771
34.92 947.362 44.107
34.94 941.623 43.9745
34.96 947.346 44.0891
34.98 945.092 44.0269
35 944.676 43.9752
35.02 944.122 44.0987
35.04 943.158 43.9225
35.06 939.685 43.9118
35.08 941.073 43.9184
35.1 938.307 43.8855
35.12 940.308 43.888
35.14 935.064 43.8407
35.16 934.598 43.7735
35.18 934.353 43.8232
35.2 939.037 43.7735
35.22 933.048 43.7397
35.24 932.062 43.8169
35.26 930.734 43.7076
35.28 931.694 43.6869
35.3 932.054 43.6829
35.32 929.824 43.7345
35.34 931.263 43.6352
35.36 929.345 43.7072
35.38 926.789 43.614
35.4 922.129 43.4958
35.42 922.755 43.5095
35.44 925.205 43.5255
35.46 918.647 43.5162
35.48 923.411 43.4248
35.5 921.669 43.5219
35.52 920.642 43.4492
35.54 920.922 43.4974
35.56 918.404 43.3576
35.58 917.926 43.3455
35.6 912.496 43.2943
35.62 914.286 43.307
35.64 909.126 43.1829
35.66 909.909 43.2496
35.68 909.199 43.204
35.7 911.022 43.1715
35.72 906.77 43.1785
35.74 910.463 43.161
35.76 905.874 43.1564
35.78 909.507 43.1503
35.8 900.414 43.0044
35.82 904.656 43.0696
35.84 903.915 43.029
35.86 901.565 42.9843
35.88 903.529 43.125
35.9 901.179 42.9394
35.92 897.795 42.9413
35.94 899.699 42.9394
35.96 897.722 42.9111
35.98 892.892 42.8605
36 896.477 42.8274
36.02 894.458 42.821
36.04 893.05 42.7993
36.06 887.676 42.7075
36.08 891.473 42.7328
36.1 888.043 42.6626
36.12 890.435 42.7885
36.14 891.084 42.679
36.16 886.673 42.6729
36.18 887.307 42.6542
36.2 888.575 42.7161
36.22 881.552 42.5478
36.24 888.106 42.6354
36.26 882.564 42.5866
36.28 881.345 42.4891
36.3 880.366 42.5151
36.32 876.51 42.4488
36.34 877.714 42.3583
36.36 876.517 42.5049
36.38 878.545 42.3909
36.4 875.911 42.4338
36.42 874.437 42.2642
36.44 874.493 42.3764
36.46 870.4 42.2311
36.48 869.84 42.304
36.5 869.369 42.2101
36.52 870.094 42.2364
36.54 867.97 42.1933
36.56 866.122 42.1258
36.58 863.973 42.1742
36.6 866.662 42.1726
36.62 863.266 42.027
36.64 862.224 42.0704
36.66 865.503 42.0736
36.68 860.444 41.9947
36.7 858.166 42.0366
36.72 861.98 42.0434
36.74 858.897 41.944
36.76 858.095 41.9135
36.78 857.386 41.9929
36.8 860.576 41.8946
36.82 851.662 41.9072
36.84 852.868 41.7931
36.86 851.747 41.8231
36.88 853.644 41.8566
36.9 847.481 41.674
36.92 845.79 41.6754
36.94 847.215 41.746
36.96 849.52 41.6795
36.98 844.897 41.6715
37 845.657 41.623
37.02 846.881 41.6695
37.04 843.468 41.6685
37.06 844.334 41.5449
37.08 842.045 41.6004
37.1 842.594 41.4834
37.12 837.909 41.5161
37.14 838.101 41.5208
37.16 841.249 41.4997
37.18 836.335 41.394
37.2 840.309 41.512
37.22 834.76 41.3457
37.24 835.422 41.467
37.26 838.198 41.4506
37.28 835.618 41.4178
37.3 836.024 41.3955
37.32 834.689 41.3552
37.34 833.634 41.4172
37.36 831.933 41.2639
37.38 832.399 41.2431
37.4 826.994 41.1981
37.42 823.983 41.1536
37.44 824.491 41.1737
37.46 827.798 41.147
37.48 823.13 41.1618
37.5 823.26 41.0746
37.52 822.468 40.9853
37.54 820.121 41.0648
37.56 823.26 41.0746
37.58 820.571 41.0714
37.6 816.281 40.957
37.62 819.2 40.9061
37.64 815.493 40.9551
37.66 814.997 40.919
37.68 816.593 40.9372
37.7 816.417 40.8933
37.72 813.458 40.8654
37.74 811.159 40.8609
37.76 815.094 40.8809
37.78 811.268 40.6667
37.8 809.448 40.8071
37.82 807.714 40.6459
37.84 807.904 40.7131
37.86 805.197 40.6559
37.88 804.923 40.762
37.9 803.84 40.5404
37.92 805.101 40.587
37.94 802.909 40.5856
37.96 804.392 40.6689
37.98 799.347 40.5352
38 799.001 40.4203
38.02 803.345 40.575
38.04 796.731 40.4644
38.06 797.628 40.4706
38.08 793.369 40.3598
38.1 795.989 40.3758
38.12 796 40.332
38.14 793.259 40.3081
38.16 793.566 40.3827
38.18 791.398 40.3682
38.2 791.402 40.2452
38.22 789.475 40.3489
38.24 792.636 40.137
38.26 786.186 40.2484
38.28 790.812 40.2403
38.3 784.044 40.1935
38.32 787.126 40.046
38.34 782.042 40.1628
38.36 785.412 40.0798
38.38 781.166 40.0776
38.4 782.433 39.9406
38.42 780.614 40.1088
38.44 780.914 40.0546
38.46 776.672 39.9446
38.48 784.704 40.0449
38.5 778.489 39.8504
38.52 775.426 40.05
38.54 779.743 40.0416
38.56 773.16 39.8447
38.58 779.2 39.8397
38.6 779.27 39.9245
38.62 771.686 39.8654
38.64 773.653 39.8255
38.66 765.919 39.7717
38.68 773.799 39.8001
38.7 773.053 39.7042
38.72 767.578 39.8217
38.74 769.73 39.6307
38.76 767.144 39.8203
38.78 768.438 39.6028
38.8 764.493 39.5481
38.82 767.555 39.5874
38.84 755.556 39.598
38.86 767.089 39.585
38.88 759.801 39.3542
38.9 756.632 39.5499
38.92 766.158 39.4728
38.94 762.394 39.5714
38.96 764.712 39.6328
38.98 757.876 39.5226
39 759.804 39.3759
39.02 757.293 39.5134
39.04 758.805 39.352
39.06 757.561 39.5328
39.08 760.63 39.4044
39.1 756.248 39.4647
39.12 753.89 39.2946
39.14 754.635 39.2705
39.16 751.637 39.3665
39.18 749.677 39.0982
39.2 745.693 39.1104
39.22 750.79 39.2467
39.24 746.305 39.1364
39.26 749.754 39.1777
39.28 746.529 39.1497
39.3 747.789 39.2491
39.32 743.892 39.1039
39.34 751.391 39.1187
39.36 738.233 38.9786
39.38 748.308 39.1031
39.4 740.095 39.0367
39.42 738.345 38.9906
39.44 743.385 39.066
39.46 743.826 39.0175
39.48 742.653 38.9973
39.5 739.84 38.9297
39.52 738.537 39.0412
39.54 736 38.7126
39.56 734.088 38.7997
39.58 732.215 38.9099
39.6 737.055 38.8313
39.62 729.812 38.7198
39.64 733.091 38.8189
39.66 734.801 38.7945
39.68 732.297 38.7435
39.7 726.611 38.7592
39.72 730.044 38.6315
39.74 736 38.8639
39.76 733.867 38.7539
39.78 724.04 38.5935
39.8 733.007 38.7666
39.82 730.353 38.4157
39.84 715.175 38.67
39.86 733.94 38.6555
39.88 730.718 38.6169
39.9 742.029 38.9068
39.92 721.34 38.7713
39.94 738.706 38.8327
39.96 731.429 38.6549
39.98 735.179 39.024
40 728.412 38.581
40.02 734.492 38.6061
40.04 728.299 38.7351
40.06 730.638 38.6586
40.08 722.489 38.6069
40.1 720.176 38.5404
40.12 719.726 38.5521
40.14 719.101 38.2258
40.16 723.862 38.3571
40.18 716.8 38.494
40.2 705.15 38.2015
40.22 716.172 38.3411
40.24 726.109 38.4323
40.26 719.392 38.2715
40.28 714.868 38.151
40.3 712.053 38.6254
40.32 718.834 38.2726
40.34 716.8 38.5774
40.36 727.393 38.5102
40.38 716.084 38.2206
40.4 725.97 38.7013
40.42 727.188 38.1363
40.44 704 38.3667
40.46 709.543 38.0964
40.48 709.543 38.0964
40.5 714.218 38.4716
40.52 717.675 38.3453
40.54 701.117 37.9359
40.56 708.187 38.1399
40.58 713.697 38.0537
40.6 689.633 37.9731
40.62 712.348 37.7451
40.64 690.605 38.1137
40.66 709.973 37.6822
40.68 697.507 38.1363
40.7 693.677 37.2472
40.72 689.231 38.6861
40.74 719.568 37.9359
40.76 744.727 38.5935
40.78 0 0
40.8 0 0
40.82 0 0
40.84 0 0
40.86 0 0
40.88 0 0
40.9 0 0
40.92 0 0
40.94 0 0
40.96 0 0
40.98 0 0
41 0 0
41.02 0 0
41.04 0 0
41.06 0 0
41.08 0 0
41.1 0 0
41.12 0 0
41.14 0 0
41.16 0 0
41.18 0 0
41.2 0 0
41.22 0 0
41.24 0 0
41.26 0 0
41.28 0 0
41.3 0 0
41.32 0 0
41.34 0 0
41.36 0 0
41.38 0 0
41.4 0 0
41.42 0 0
41.44 0 0
41.46 0 0
41.48 0 0
41.5 0 0
41.52 0 0
41.54 0 0
41.56 0 0
41.58 0 0
41.6 0 0
41.62 0 0
41.64 0 0
41.66 0 0
41.68 0 0
41.7 0 0
41.72 0 0
41.74 0 0
41.76 0 0
41.78 0 0
41.8 0 0
41.82 0 0
41.84 0 0
41.86 0 0
41.88 0 0
41.9 0 0
41.92 0 0
41.94 0 0
41.96 0 0
41.98 0 0
42 0 0
42.02 0 0
42.04 0 0
42.06 0 0
42.08 0 0
42.1 0 0
42.12 0 0
42.14 0 0
42.16 0 0
42.18 0 0
42.2 0 0
42.22 0 0
42.24 0 0
42.26 0 0
42.28 0 0
42.3 0 0
42.32 0 0
42.34 0 0
42.36 0 0
42.38 0 0
42.4 0 0
42.42 0 0
42.44 0 0
42.46 0 0
42.48 0 0
42.5 0 0
42.52 0 0
42.54 0 0
42.56 0 0
42.58 0 0
42.6 0 0
42.62 0 0
42.64 0 0
42.66 0 0
42.68 0 0
42.7 0 0
42.72 0 0
42.74 0 0
42.76 0 0
42.78 0 0
42.8 0 0
42.82 0 0
42.84 0 0
42.86 0 0
42.88 0 0
42.9 0 0
42.92 0 0
42.94 0 0
42.96 0 0
42.98 0 0
43 0 0
43.02 0 0
43.04 0 0
43.06 0 0
43.08 0 0
43.1 0 0
43.12 0 0
